# Created by:        SpecsLab Prodigy, Version 4.91.3-r105809 
#
# XY-Serializer Export Settings:
#   Comment Prefix:           #
#   Output Meta Data:         yes
#   Energy Axis:              Kinetic Energy
#   Count Rate:               Counts per Second
#   Separate Scan Data:       no
#   Separate Channel Data:    no
#   External Channel Data:    yes
#   Transmission Function:    no
#   Error Bar:                no
#   Operation Results:        yes
#   Time Zone Format:         UTC
#
# Group:                        Transmission cyclic
#
# Region:                       Wide3
# Spectrum ID:                  7
# Acquisition Date:             06/01/22 09:47:32 UTC
# Analysis Method:              XPS
# Analyzer Lens:                SmallArea:1.5kV
# Analyzer Slit:                4:7x20c\B:open
# Scan Mode:                    FixedAnalyzerTransmission
# Curves/Scan:                  1
# Values/Curve:                 1106
# Dwell Time:                   0.1
# Excitation Energy:            1486.61
# Kinetic Energy:               386.61
# Pass Energy:                  100
# Bias Voltage:                 90
# Detector Voltage:             1850
# Eff. Workfunction:            4.14
# Source:                       X-Ray Dummy
# Comment:                      
# OrdinateRange:                [-22.000000, 22.000000]

# Cycle: 0
#
# Number of Scans: 1

# Cycle: 0, Curve: 0
#
# Acquisition Date:             06/01/22 09:47:32 UTC
# ColumnLabels:                 energy counts/s
#
386.61  46987.374
387.61  48122.247
388.61  48617.941
389.61  48502.441
390.61  48531.589
391.61  47774.776
392.61  46827.814
393.61  45556.028
394.61  46534.15
395.61  46765.271
396.61  48679.825
397.61  46963.221
398.61  45623.531
399.61  44796.18
400.61  45617.646
401.61  47013.233
402.61  47123.209
403.61  46629.011
404.61  46422.091
405.61  46329.767
406.61  47669.07
407.61  46662.368
408.61  46616.085
409.61  47108.813
410.61  46381.652
411.61  48228.028
412.61  47801.116
413.61  47475.218
414.61  48818.057
415.61  48682.114
416.61  47415.195
417.61  48613.409
418.61  48238.691
419.61  47683.808
420.61  47879.429
421.61  48714.779
422.61  48243.894
423.61  48950.975
424.61  49153.35
425.61  48486.297
426.61  49518.55
427.61  50127.15
428.61  50047.035
429.61  50112.684
430.61  49074.557
431.61  51026.902
432.61  50638.761
433.61  49814.219
434.61  50574.028
435.61  50763.438
436.61  50626.665
437.61  50792.119
438.61  50698.197
439.61  52068.646
440.61  52330.597
441.61  51448.758
442.61  51438.356
443.61  51576.631
444.61  51340.74
445.61  52473.843
446.61  52406.28
447.61  52925.864
448.61  53163.172
449.61  52848.261
450.61  53042.47
451.61  54833.479
452.61  52956.778
453.61  54206.75
454.61  53591.628
455.61  55034.24
456.61  53891.49
457.61  53817.572
458.61  53485.867
459.61  53435.64
460.61  54415.192
461.61  55858.993
462.61  56904.202
463.61  56278.578
464.61  56496.787
465.61  54602.553
466.61  56699.914
467.61  57195.746
468.61  57380.871
469.61  56798.645
470.61  57685.53
471.61  57633.938
472.61  56948.57
473.61  56469.074
474.61  56868.865
475.61  56498.507
476.61  58205.242
477.61  59205.04
478.61  59448.344
479.61  58334.455
480.61  59077.359
481.61  58853.004
482.61  60283.733
483.61  60227.424
484.61  59427.44
485.61  59836.063
486.61  59815.158
487.61  60496.57
488.61  62425.607
489.61  61223.858
490.61  60869.479
491.61  62677.205
492.61  62235.753
493.61  62976.33
494.61  62695.91
495.61  64266.65
496.61  65293.988
497.61  64618.102
498.61  64625.606
499.61  62946.67
500.61  62579.181
501.61  64392.646
502.61  62653.106
503.61  63212.011
504.61  64216.692
505.61  65362.569
506.61  66203.758
507.61  64774.079
508.61  63982.064
509.61  66581.21
510.61  65512.93
511.61  67246.855
512.61  66762.677
513.61  67043.762
514.61  67032.251
515.61  67669.977
516.61  69174.529
517.61  67417.298
518.61  67250.414
519.61  68041.373
520.61  68917.546
521.61  68859.178
522.61  67355.376
523.61  66893.785
524.61  65978.801
525.61  65730.606
526.61  67617.622
527.61  67732.795
528.61  68514.607
529.61  69817.094
530.61  72844.329
531.61  78779.719
532.61  89503.594
533.61  91074.399
534.61  79791.153
535.61  73077.492
536.61  69664.082
537.61  68924.641
538.61  67823.99
539.61  65612.918
540.61  64456.407
541.61  63134.213
542.61  63525.371
543.61  61746.539
544.61  59097.132
545.61  58212.493
546.61  57814.424
547.61  56669.411
548.61  59057.766
549.61  61125.648
550.61  67527.95
551.61  82871.983
552.61  110212.18
553.61  102231.57
554.61  74255.004
555.61  58167.453
556.61  53185.464
557.61  53676.264
558.61  53683.625
559.61  53143.922
560.61  53625.884
561.61  52817.532
562.61  53098
563.61  52848.733
564.61  53906.819
565.61  53102.003
566.61  53867.085
567.61  53946.294
568.61  52304.45
569.61  53541.379
570.61  53857.458
571.61  53395.841
572.61  53630.866
573.61  54604.86
574.61  54357.362
575.61  53278.387
576.61  54754.004
577.61  54751.027
578.61  56339.935
579.61  55871.882
580.61  54818.288
581.61  56135.33
582.61  57399.543
583.61  56904.06
584.61  57573.192
585.61  58023.755
586.61  57632.224
587.61  58717.435
588.61  58225.498
589.61  57172.684
590.61  57166.55
591.61  55118.821
592.61  53978.901
593.61  53016.973
594.61  54146.819
595.61  53296.271
596.61  53289.719
597.61  53552.524
598.61  51854.429
599.61  52617.2
600.61  52604.76
601.61  52726.709
602.61  52800.071
603.61  52949.709
604.61  52738.716
605.61  53779.24
606.61  53747.818
607.61  54299.638
608.61  54146.504
609.61  53815.916
610.61  54181.459
611.61  53606.951
612.61  55447.438
613.61  54547.415
614.61  54409.351
615.61  53430.283
616.61  54500.322
617.61  54777.389
618.61  54309.357
619.61  55625.116
620.61  56080.904
621.61  55573.754
622.61  54464.311
623.61  54999.45
624.61  55625.346
625.61  56257.501
626.61  55279.562
627.61  55675.347
628.61  56298.926
629.61  54912.288
630.61  56764.495
631.61  57779.148
632.61  57895.771
633.61  58274.883
634.61  59046.897
635.61  58929.807
636.61  58381.293
637.61  59304.301
638.61  57311.587
639.61  57170.251
640.61  56556.631
641.61  57411.169
642.61  57000.333
643.61  57645.621
644.61  56276.671
645.61  57906.683
646.61  55976.333
647.61  56032.077
648.61  57849.871
649.61  57894.437
650.61  57387.787
651.61  57092.776
652.61  58067.074
653.61  57009.236
654.61  56963.736
655.61  57854.575
656.61  57965.314
657.61  58627.429
658.61  57156.012
659.61  57817.238
660.61  58562.004
661.61  58783.422
662.61  59359.321
663.61  57667.75
664.61  58696.747
665.61  58424.071
666.61  58946.728
667.61  58801.36
668.61  60159.226
669.61  61204.072
670.61  59982.07
671.61  59522.928
672.61  59886.909
673.61  60364.45
674.61  60000.515
675.61  59621.075
676.61  60657.387
677.61  59983.479
678.61  60430.693
679.61  60828.581
680.61  61796.632
681.61  61394.786
682.61  61755.945
683.61  61859.178
684.61  62462.048
685.61  62585.802
686.61  62502.075
687.61  61420.072
688.61  63194.462
689.61  63432.706
690.61  62748.087
691.61  62952.789
692.61  62349.912
693.61  62892.045
694.61  63667.733
695.61  62969.903
696.61  63072.886
697.61  63955.105
698.61  63312.839
699.61  63346.589
700.61  63778.974
701.61  63951.805
702.61  64355.145
703.61  64895.478
704.61  66484.572
705.61  66068.171
706.61  63160.806
707.61  62963.938
708.61  66089.287
709.61  66900.131
710.61  66944.172
711.61  65527.238
712.61  66971.519
713.61  66668.843
714.61  66186.007
715.61  67610.318
716.61  68736.156
717.61  68705.207
718.61  67641.775
719.61  68051.527
720.61  67855.478
721.61  65191.367
722.61  64376.997
723.61  64340.854
724.61  65833.466
725.61  66143.92
726.61  66482.241
727.61  65510.757
728.61  64163.212
729.61  64690.514
730.61  65697.4
731.61  65725.346
732.61  65354.185
733.61  65458.601
734.61  66241.78
735.61  67318.688
736.61  66047.736
737.61  66628.019
738.61  67184.272
739.61  67601.385
740.61  67252.115
741.61  68559.833
742.61  68829.726
743.61  68557.527
744.61  68269.583
745.61  68263.525
746.61  69427.446
747.61  67863.652
748.61  69076.094
749.61  69188.265
750.61  70421.07
751.61  68659.203
752.61  69418.533
753.61  70350.034
754.61  69213.57
755.61  70031.298
756.61  71252.408
757.61  69895.133
758.61  68943.238
759.61  70417.839
760.61  69943.435
761.61  70495.434
762.61  70939.074
763.61  72144.607
764.61  71411.766
765.61  71803.801
766.61  70528.127
767.61  72214.052
768.61  70350.094
769.61  71535.838
770.61  71509.897
771.61  71335.215
772.61  72064.035
773.61  71790.631
774.61  72094.394
775.61  69774.798
776.61  71072.926
777.61  69895.395
778.61  69864.042
779.61  69259.707
780.61  69354.004
781.61  68875.392
782.61  67852.452
783.61  68505.696
784.61  68230.769
785.61  68534.361
786.61  69096.636
787.61  69498.163
788.61  69794.677
789.61  68393.012
790.61  69807.303
791.61  69629.952
792.61  69376.118
793.61  68616.67
794.61  69120.504
795.61  71554.937
796.61  70526.563
797.61  69480.822
798.61  69119.415
799.61  70925.816
800.61  71068.507
801.61  69800.663
802.61  70692.299
803.61  71863.138
804.61  70568.343
805.61  72210.389
806.61  73654.908
807.61  73814.077
808.61  72719.777
809.61  73988.671
810.61  72898.925
811.61  73298.504
812.61  73808.451
813.61  75012.11
814.61  76396.131
815.61  75472.139
816.61  75458.595
817.61  74628.306
818.61  77257.944
819.61  76454.259
820.61  76798.208
821.61  77841.459
822.61  77863.695
823.61  77006.328
824.61  79423.042
825.61  78859.717
826.61  79019.825
827.61  81592.492
828.61  82023.703
829.61  80380.646
830.61  81171.242
831.61  80934.845
832.61  81472.585
833.61  82202.919
834.61  83767.604
835.61  84451.952
836.61  83176.076
837.61  83749.247
838.61  83760.869
839.61  82833.992
840.61  81487.705
841.61  80150.762
842.61  81040.712
843.61  81018.828
844.61  82828.49
845.61  83824.543
846.61  84324.535
847.61  76069.486
848.61  69891.383
849.61  66408.86
850.61  62190.506
851.61  61289.401
852.61  62535.541
853.61  61697.199
854.61  62166.046
855.61  63049.164
856.61  64052.125
857.61  62208.39
858.61  61382.569
859.61  62426.937
860.61  60844.266
861.61  60833.628
862.61  61193.72
863.61  61151.717
864.61  60172.925
865.61  62206.644
866.61  63044.561
867.61  61385.917
868.61  61337.642
869.61  60627.033
870.61  62096.361
871.61  62332.355
872.61  61494.188
873.61  63114.898
874.61  61387.756
875.61  61628.253
876.61  61786.736
877.61  62431.658
878.61  61902.173
879.61  64186.351
880.61  63651.497
881.61  62596.72
882.61  62312.083
883.61  61827.619
884.61  61104.898
885.61  63231.356
886.61  63860.753
887.61  63550.775
888.61  64123.903
889.61  64411.985
890.61  64855.457
891.61  65017.96
892.61  65286.242
893.61  66649.915
894.61  65597.872
895.61  66514.53
896.61  67146.653
897.61  66690.334
898.61  65989.888
899.61  65492.782
900.61  65861.576
901.61  64916.186
902.61  64641.805
903.61  64835.091
904.61  64214.05
905.61  64510.607
906.61  63705.386
907.61  63994.997
908.61  64743.777
909.61  64765.387
910.61  65434.248
911.61  67742.668
912.61  69441.462
913.61  70972.847
914.61  72397.622
915.61  73419.777
916.61  76883.827
917.61  80182.99
918.61  74156.319
919.61  67909.862
920.61  64795.136
921.61  60074.704
922.61  58834.143
923.61  58096.891
924.61  56942.25
925.61  56870.069
926.61  56596.894
927.61  56805.249
928.61  56208.585
929.61  54740.662
930.61  56044.384
931.61  55726.626
932.61  57499.696
933.61  55706.847
934.61  56258.995
935.61  57638.964
936.61  58567.382
937.61  57814.545
938.61  56705.065
939.61  55976.416
940.61  54485.648
941.61  55038.892
942.61  55197.487
943.61  53885.337
944.61  54542.177
945.61  53632.867
946.61  54148.581
947.61  56025.56
948.61  56360.604
949.61  54910.553
950.61  56030.799
951.61  57238.33
952.61  57738.051
953.61  57441.797
954.61  56166.795
955.61  57422.434
956.61  54759.209
957.61  54298.2
958.61  54532.617
959.61  54446.22
960.61  53892.685
961.61  54706.879
962.61  55822.356
963.61  56256.974
964.61  57498.616
965.61  56334.168
966.61  57130.793
967.61  58538.991
968.61  58889.211
969.61  59132.044
970.61  59648.985
971.61  58701.477
972.61  57787.365
973.61  54540.227
974.61  54795.123
975.61  54200.216
976.61  53973.06
977.61  54061.439
978.61  55726.862
979.61  56690.489
980.61  56577.396
981.61  56130.615
982.61  55686.914
983.61  54854.621
984.61  54977.268
985.61  53801.649
986.61  52606.309
987.61  53087.928
988.61  52593.408
989.61  52653.199
990.61  52930.431
991.61  51895.76
992.61  50699.334
993.61  51608.516
994.61  52222.899
995.61  53262.471
996.61  52625.749
997.61  54561.566
998.61  54612.567
999.61  53319.82
1000.61  53701.69
1001.61  51762.235
1002.61  51833.935
1003.61  53939.146
1004.61  53695.832
1005.61  53298.93
1006.61  53551.221
1007.61  53816.706
1008.61  53420.781
1009.61  53088.788
1010.61  52362.094
1011.61  52289.455
1012.61  54092.623
1013.61  54133.803
1014.61  53823.213
1015.61  52923.909
1016.61  53240.784
1017.61  54985.708
1018.61  55323.218
1019.61  55314.91
1020.61  55393.404
1021.61  56051.033
1022.61  54225.506
1023.61  55262.095
1024.61  53833.902
1025.61  54580.244
1026.61  55921.004
1027.61  55762.641
1028.61  55184.046
1029.61  55853.762
1030.61  55427.425
1031.61  54069.393
1032.61  52681.436
1033.61  52128.45
1034.61  50257.367
1035.61  50030.204
1036.61  49630.397
1037.61  48785.646
1038.61  50151.424
1039.61  49381.85
1040.61  49903.315
1041.61  49893.896
1042.61  49951.956
1043.61  50452.981
1044.61  52430.506
1045.61  52318.72
1046.61  52615.829
1047.61  53796.958
1048.61  54411.647
1049.61  54497.535
1050.61  54604.729
1051.61  53464.497
1052.61  52713.311
1053.61  53437.672
1054.61  52672.193
1055.61  51782.724
1056.61  51205.823
1057.61  50347.667
1058.61  50238.746
1059.61  50485.074
1060.61  52086.365
1061.61  52485.356
1062.61  51778.136
1063.61  54052.719
1064.61  57239.847
1065.61  63185.024
1066.61  60780.217
1067.61  54424.146
1068.61  51294.339
1069.61  49625.585
1070.61  47547.127
1071.61  42746.462
1072.61  42597.48
1073.61  42749.868
1074.61  41690.633
1075.61  41839.51
1076.61  42029.911
1077.61  41380.777
1078.61  40493.677
1079.61  40894.057
1080.61  40642.04
1081.61  39576.354
1082.61  41324.557
1083.61  41136.801
1084.61  39742.47
1085.61  40793.711
1086.61  40304.29
1087.61  41599.296
1088.61  41647.702
1089.61  41434.778
1090.61  42670.611
1091.61  46313.212
1092.61  48402.048
1093.61  48251.52
1094.61  45782.948
1095.61  44047.684
1096.61  44081.832
1097.61  41180.967
1098.61  41267.266
1099.61  40803.058
1100.61  39178.27
1101.61  38977.626
1102.61  39902.061
1103.61  40351.845
1104.61  39230.02
1105.61  39289.131
1106.61  40169.8
1107.61  40960.401
1108.61  39594.141
1109.61  39895.467
1110.61  41446.246
1111.61  43364.343
1112.61  44421.485
1113.61  46684.673
1114.61  48672.056
1115.61  48692.792
1116.61  48665.356
1117.61  45933.126
1118.61  42588.286
1119.61  40819.185
1120.61  39475.39
1121.61  39392.707
1122.61  39799.888
1123.61  39484.746
1124.61  41834.403
1125.61  43479.582
1126.61  44410.099
1127.61  44001.175
1128.61  42648.107
1129.61  39204.703
1130.61  38771.036
1131.61  35802.221
1132.61  35053.807
1133.61  33831.407
1134.61  33675.117
1135.61  32445.891
1136.61  32608.571
1137.61  32618.689
1138.61  32477.928
1139.61  32008.21
1140.61  32220.453
1141.61  32823.383
1142.61  32003.154
1143.61  31707.668
1144.61  32604.544
1145.61  32584.894
1146.61  32365.52
1147.61  33917.009
1148.61  35433.022
1149.61  36813.024
1150.61  38655.279
1151.61  40356.496
1152.61  38803.453
1153.61  36990.479
1154.61  34344.911
1155.61  34197.209
1156.61  32387.728
1157.61  32418.95
1158.61  31999.505
1159.61  33145.055
1160.61  32179.38
1161.61  31904.498
1162.61  32073.223
1163.61  31146.111
1164.61  30385.138
1165.61  29234.394
1166.61  30507.698
1167.61  29903.635
1168.61  29852.912
1169.61  29735.828
1170.61  30196.862
1171.61  28940.616
1172.61  30214.639
1173.61  31524.345
1174.61  30801.579
1175.61  30558.046
1176.61  30804.664
1177.61  30828.25
1178.61  30854.404
1179.61  31261.368
1180.61  30970.435
1181.61  31051.378
1182.61  30903.609
1183.61  31165.053
1184.61  30667.436
1185.61  31730.014
1186.61  31286.476
1187.61  31802.523
1188.61  32175.653
1189.61  32187.269
1190.61  31453.492
1191.61  31861.939
1192.61  32057.582
1193.61  32604.081
1194.61  31454.199
1195.61  32900.9
1196.61  33934.031
1197.61  34004.441
1198.61  33479.175
1199.61  34934.641
1200.61  36674.955
1201.61  37516.72
1202.61  37442.64
1203.61  36846.192
1204.61  37475.614
1205.61  38387.401
1206.61  38325.483
1207.61  38047.224
1208.61  38886.999
1209.61  38272.438
1210.61  39166.484
1211.61  37558.014
1212.61  37227.151
1213.61  36740.909
1214.61  36209.482
1215.61  36631.567
1216.61  36127.616
1217.61  36484.952
1218.61  37807.198
1219.61  39964.19
1220.61  40576.409
1221.61  43705.566
1222.61  48243.547
1223.61  55755.229
1224.61  70151.64
1225.61  75884.317
1226.61  66209.249
1227.61  51745.345
1228.61  45297.203
1229.61  44350.036
1230.61  39224.016
1231.61  31556.194
1232.61  26206.272
1233.61  25660.418
1234.61  25258.656
1235.61  23435.446
1236.61  22878.412
1237.61  23888.967
1238.61  24324.625
1239.61  23983.385
1240.61  24572.01
1241.61  24200.164
1242.61  24890.089
1243.61  25039.349
1244.61  24817.909
1245.61  25008.447
1246.61  24161.22
1247.61  24304.925
1248.61  24357.396
1249.61  23481.576
1250.61  24015.186
1251.61  23872.269
1252.61  23527.825
1253.61  24258.436
1254.61  25551.726
1255.61  25213.746
1256.61  25921.305
1257.61  27556.549
1258.61  31250.881
1259.61  36549.193
1260.61  41684.528
1261.61  41578.725
1262.61  36254.74
1263.61  30630.917
1264.61  26554.054
1265.61  24293.818
1266.61  21498.404
1267.61  19838.898
1268.61  18688.733
1269.61  17487.986
1270.61  17544.803
1271.61  17913.265
1272.61  18105.679
1273.61  18087.96
1274.61  18500.688
1275.61  18273.197
1276.61  18151.155
1277.61  19184.633
1278.61  19840.398
1279.61  20511.173
1280.61  21407.584
1281.61  22298.031
1282.61  22041.754
1283.61  20538.972
1284.61  17712.896
1285.61  16595.124
1286.61  17003.681
1287.61  16322.281
1288.61  16404.649
1289.61  15977.148
1290.61  15870.041
1291.61  15561.98
1292.61  16052.275
1293.61  15462.134
1294.61  15871.037
1295.61  17156.822
1296.61  16656.314
1297.61  16706.997
1298.61  19053.048
1299.61  19738.312
1300.61  18984.961
1301.61  17250.056
1302.61  16307.715
1303.61  16273.471
1304.61  16818.36
1305.61  16954.796
1306.61  17769.465
1307.61  17256.113
1308.61  17263.773
1309.61  16987.072
1310.61  16685.025
1311.61  17464.117
1312.61  17328.493
1313.61  16810.004
1314.61  16581.103
1315.61  16967.586
1316.61  16918.401
1317.61  17158.837
1318.61  17545.547
1319.61  17095.595
1320.61  17823.662
1321.61  17821.61
1322.61  18895.541
1323.61  19371.188
1324.61  20054.62
1325.61  20803.777
1326.61  20927.36
1327.61  19675.949
1328.61  18445.195
1329.61  17700.005
1330.61  16898.996
1331.61  18099.39
1332.61  17849.498
1333.61  17064.155
1334.61  17217.934
1335.61  17429.422
1336.61  17928.122
1337.61  18045.713
1338.61  19970.443
1339.61  22142.609
1340.61  24412.403
1341.61  24846.612
1342.61  23521.013
1343.61  23645.832
1344.61  25255.899
1345.61  26869.022
1346.61  25524.719
1347.61  20558.81
1348.61  16428.791
1349.61  14539.728
1350.61  12800.254
1351.61  12681.428
1352.61  12021.381
1353.61  12780.92
1354.61  13115.299
1355.61  14367.669
1356.61  16800.586
1357.61  16210.065
1358.61  14280.57
1359.61  13939.448
1360.61  13437.853
1361.61  14921.41
1362.61  15540.115
1363.61  15291.828
1364.61  14001.084
1365.61  12366.119
1366.61  11470.67
1367.61  10659.257
1368.61  10305.847
1369.61  9922.1522
1370.61  10463.911
1371.61  10012.735
1372.61  9857.1119
1373.61  10336.129
1374.61  10586.583
1375.61  11260.923
1376.61  12193.422
1377.61  13988.341
1378.61  14490.42
1379.61  14973.796
1380.61  15545.449
1381.61  15918.582
1382.61  13850.107
1383.61  11898.241
1384.61  10792.487
1385.61  9469.2983
1386.61  9649.1194
1387.61  9361.595
1388.61  9164.3196
1389.61  9739.3172
1390.61  8990.1794
1391.61  9632.587
1392.61  8959.1815
1393.61  9077.295
1394.61  9180.4965
1395.61  9425.3764
1396.61  9180.1108
1397.61  8936.4673
